BB_203A_13
Integration time [ms]:   5,000
Averaging Nr. [scans]: 10
Smoothing Nr. [pixels]: 3
Data measured with spectrometer [name]: 7516255SP
Wave   ;Sample   ;Dark     ;Reference
[nm]   ;[counts] ;[counts] ;[counts] 

177,229;  244,617;  246,500;    0,000
177,829;  243,111;  244,100;    0,000
178,430;  247,578;  247,950;    0,000
179,030;  246,308;  248,171;    0,000
179,630;  247,662;  250,214;    0,000
180,230;  245,059;  247,000;    0,000
180,830;  250,899;  250,743;    0,000
181,430;  248,191;  247,329;    0,000
182,030;  253,720;  252,600;    0,000
182,630;  250,081;  250,629;    0,000
183,230;  254,322;  255,686;    0,000
183,830;  253,161;  255,229;    0,000
184,430;  258,946;  260,300;    0,000
185,030;  259,903;  261,701;    0,000
185,630;  261,239;  264,017;    0,000
186,229;  259,063;  262,761;    0,000
186,829;  260,630;  264,219;    0,000
187,429;  256,843;  258,963;    0,000
188,029;  256,795;  261,151;    0,000
188,628;  255,784;  259,952;    0,000
189,228;  255,685;  260,352;    0,000
189,828;  254,281;  260,896;    0,000
190,428;  255,268;  262,440;    0,000
191,027;  255,129;  262,598;    0,000
191,627;  257,127;  263,755;    0,000
192,227;  255,167;  260,655;    0,000
192,826;  254,877;  259,584;    0,000
193,426;  250,065;  256,684;    0,000
194,025;  254,286;  258,468;    0,000
194,625;  250,280;  255,010;    0,000
195,224;  247,104;  251,038;    0,000
195,824;  241,992;  247,551;    0,000
196,423;  243,894;  249,451;    0,000
197,023;  234,488;  241,551;    0,000
197,622;  240,042;  246,593;    0,000
198,221;  233,033;  241,736;    0,000
198,821;  232,142;  240,136;    0,000
199,420;  231,563;  238,835;    0,000
200,019;  229,421;  236,607;    0,000
200,619;  230,244;  236,978;    0,000
201,218;  233,850;  240,392;    0,000
201,817;  227,877;  233,250;    0,000
202,416;  235,659;  238,907;    0,000
203,016;  234,947;  238,549;    0,000
203,615;  235,254;  241,292;    0,000
204,214;  236,620;  242,307;    0,000
204,813;  238,702;  244,378;    0,000
205,412;  239,702;  244,535;    0,000
206,011;  240,374;  246,164;    0,000
206,610;  230,544;  237,335;    0,000
207,209;  228,659;  234,564;    0,000
207,808;  231,991;  235,521;    0,000
208,407;  230,392;  237,135;    0,000
209,006;  223,642;  231,149;    0,000
209,605;  227,305;  235,249;    0,000
210,204;  224,284;  232,521;    0,000
210,803;  227,801;  234,649;    0,000
211,402;  230,102;  237,549;    0,000
212,001;  229,578;  237,221;    0,000
212,599;  232,985;  236,506;    0,000
213,198;  232,699;  238,564;    0,000
213,797;  228,265;  233,906;    0,000
214,396;  231,391;  238,278;    0,000
214,994;  229,375;  237,249;    0,000
215,593;  229,151;  237,392;    0,000
216,192;  225,615;  235,535;    0,000
216,790;  227,524;  237,421;    0,000
217,389;  230,734;  238,892;    0,000
217,988;  232,898;  240,978;    0,000
218,586;  229,474;  236,707;    0,000
219,185;  227,839;  234,435;    0,000
219,783;  225,717;  232,592;    0,000
220,382;  227,340;  235,121;    0,000
220,980;  226,760;  235,021;    0,000
221,579;  227,173;  235,835;    0,000
222,177;  226,255;  235,278;    0,000
222,776;  227,022;  235,449;    0,000
223,374;  231,006;  239,135;    0,000
223,972;  233,361;  240,049;    0,000
224,571;  233,572;  237,164;    0,000
225,169;  233,410;  238,135;    0,000
225,767;  230,602;  235,292;    0,000
226,366;  233,734;  237,906;    0,000
226,964;  235,515;  238,321;    0,000
227,562;  232,195;  237,835;    0,000
228,160;  231,821;  238,092;    0,000
228,758;  227,896;  235,635;    0,000
229,356;  229,067;  235,492;    0,000
229,955;  230,261;  235,949;    0,000
230,553;  229,393;  235,792;    0,000
231,151;  225,420;  233,421;    0,000
231,749;  227,963;  234,721;    0,000
232,347;  229,866;  236,378;    0,000
232,945;  231,583;  237,907;    0,000
233,543;  231,631;  238,421;    0,000
234,141;  228,597;  233,707;    0,000
234,739;  229,472;  234,049;    0,000
235,337;  233,389;  239,164;    0,000
235,934;  235,087;  240,092;    0,000
236,532;  235,751;  241,850;    0,000
237,130;  235,676;  243,264;    0,000
237,728;  237,257;  244,092;    0,000
238,326;  242,221;  249,950;    0,000
238,923;  235,271;  245,193;    0,000
239,521;  231,666;  241,321;    0,000
240,119;  224,273;  235,707;    0,000
240,716;  225,503;  234,492;    0,000
241,314;  223,027;  231,364;    0,000
241,912;  215,253;  225,549;    0,000
242,509;  218,799;  230,807;    0,000
243,107;  223,763;  235,635;    0,000
243,704;  225,059;  236,392;    0,000
244,302;  232,699;  244,049;    0,000
244,899;  229,592;  243,121;    0,000
245,497;  238,185;  246,821;    0,000
246,094;  238,980;  245,292;    0,000
246,692;  233,076;  239,021;    0,000
247,289;  226,910;  234,021;    0,000
247,887;  230,282;  236,549;    0,000
248,484;  230,674;  234,692;    0,000
249,081;  226,436;  230,249;    0,000
249,679;  221,168;  228,406;    0,000
250,276;  221,592;  232,249;    0,000
250,873;  222,666;  233,121;    0,000
251,470;  233,449;  240,392;    0,000
252,067;  225,845;  233,878;    0,000
252,665;  222,308;  233,292;    0,000
253,262;  226,345;  236,963;    0,000
253,859;  229,773;  240,335;    0,000
254,456;  233,418;  242,163;    0,000
255,053;  230,759;  240,306;    0,000
255,650;  229,490;  239,549;    0,000
256,247;  230,129;  241,278;    0,000
256,844;  228,074;  237,535;    0,000
257,441;  232,276;  242,049;    0,000
258,038;  224,042;  233,377;    0,000
258,635;  228,045;  236,663;    0,000
259,232;  227,254;  235,135;    0,000
259,829;  226,302;  234,249;    0,000
260,426;  229,210;  235,006;    0,000
261,022;  233,860;  238,578;    0,000
261,619;  230,322;  235,764;    0,000
262,216;  234,719;  240,035;    0,000
262,813;  228,483;  233,921;    0,000
263,409;  231,872;  236,878;    0,000
264,006;  230,774;  235,878;    0,000
264,603;  233,222;  238,220;    0,000
265,199;  233,725;  238,863;    0,000
265,796;  230,510;  233,806;    0,000
266,393;  238,444;  241,092;    0,000
266,989;  237,878;  241,006;    0,000
267,586;  237,443;  240,849;    0,000
268,182;  239,479;  243,492;    0,000
268,779;  241,511;  243,992;    0,000
269,375;  242,279;  245,206;    0,000
269,971;  238,443;  243,035;    0,000
270,568;  234,040;  239,363;    0,000
271,164;  231,789;  238,049;    0,000
271,761;  233,154;  239,421;    0,000
272,357;  228,640;  234,863;    0,000
272,953;  227,026;  234,935;    0,000
273,550;  227,848;  235,378;    0,000
274,146;  234,286;  240,049;    0,000
274,742;  234,136;  240,178;    0,000
275,338;  236,251;  240,521;    0,000
275,934;  237,813;  243,349;    0,000
276,531;  237,333;  241,978;    0,000
277,127;  235,091;  240,135;    0,000
277,723;  230,389;  237,049;    0,000
278,319;  226,287;  234,764;    0,000
278,915;  230,272;  239,078;    0,000
279,511;  222,689;  232,907;    0,000
280,107;  223,477;  232,264;    0,000
280,703;  224,151;  234,135;    0,000
281,299;  224,399;  234,892;    0,000
281,895;  224,343;  235,021;    0,000
282,491;  224,497;  234,878;    0,000
283,086;  224,296;  235,178;    0,000
283,682;  229,194;  240,407;    0,000
284,278;  228,756;  237,535;    0,000
284,874;  227,036;  235,107;    0,000
285,470;  232,376;  238,621;    0,000
286,065;  234,917;  238,550;    0,000
286,661;  238,876;  242,621;    0,000
287,257;  233,197;  235,707;    0,000
287,852;  238,111;  237,850;    0,000
288,448;  234,855;  236,607;    0,000
289,044;  234,920;  236,907;    0,000
289,639;  231,063;  233,950;    0,000
290,235;  228,783;  231,050;    0,000
290,830;  227,149;  228,907;    0,000
291,426;  224,549;  226,707;    0,000
292,021;  223,773;  227,721;    0,000
292,617;  220,612;  224,664;    0,000
293,212;  221,240;  225,221;    0,000
293,807;  218,687;  222,750;    0,000
294,403;  221,763;  229,278;    0,000
294,998;  222,890;  230,678;    0,000
295,593;  222,527;  231,064;    0,000
296,189;  221,456;  229,864;    0,000
296,784;  222,346;  229,049;    0,000
297,379;  223,757;  231,092;    0,000
297,974;  225,734;  235,106;    0,000
298,570;  218,073;  227,849;    0,000
299,165;  215,643;  224,992;    0,000
299,760;  216,239;  225,321;    0,000
300,355;  218,864;  228,921;    0,000
300,950;  220,170;  231,735;    0,000
301,545;  221,006;  232,621;    0,000
302,140;  221,905;  231,064;    0,000
302,735;  224,859;  232,049;    0,000
303,330;  227,688;  236,049;    0,000
303,925;  227,625;  235,949;    0,000
304,520;  227,048;  234,449;    0,000
305,115;  227,022;  236,307;    0,000
305,709;  223,484;  232,021;    0,000
306,304;  220,681;  229,064;    0,000
306,899;  219,454;  226,607;    0,000
307,494;  221,469;  225,964;    0,000
308,089;  217,214;  222,292;    0,000
308,683;  217,071;  222,035;    0,000
309,278;  215,506;  217,821;    0,000
309,873;  220,608;  221,635;    0,000
310,467;  224,881;  225,692;    0,000
311,062;  228,450;  229,878;    0,000
311,656;  226,302;  228,035;    0,000
312,251;  231,947;  233,449;    0,000
312,846;  230,936;  233,563;    0,000
313,440;  235,475;  238,392;    0,000
314,035;  232,431;  235,235;    0,000
314,629;  232,638;  236,820;    0,000
315,223;  234,519;  239,920;    0,000
315,818;  235,430;  242,178;    0,000
316,412;  234,694;  239,749;    0,000
317,006;  233,220;  239,292;    0,000
317,601;  229,717;  235,978;    0,000
318,195;  233,832;  241,921;    0,000
318,789;  232,583;  240,078;    0,000
319,384;  233,242;  239,507;    0,000
319,978;  228,338;  234,821;    0,000
320,572;  230,706;  237,950;    0,000
321,166;  235,450;  240,607;    0,000
321,760;  236,716;  242,092;    0,000
322,354;  234,599;  238,864;    0,000
322,948;  232,470;  237,778;    0,000
323,542;  228,185;  235,578;    0,000
324,136;  229,353;  237,978;    0,000
324,730;  229,416;  237,349;    0,000
325,324;  226,443;  233,963;    0,000
325,918;  223,822;  233,006;    0,000
326,512;  223,258;  233,192;    0,000
327,106;  225,774;  236,363;    0,000
327,700;  224,128;  233,149;    0,000
328,294;  227,363;  235,877;    0,000
328,887;  223,954;  234,720;    0,000
329,481;  224,426;  236,106;    0,000
330,075;  225,603;  234,634;    0,000
330,669;  223,624;  232,520;    0,000
331,262;  221,004;  226,577;    0,000
331,856;  222,370;  226,992;    0,000
332,449;  221,788;  225,963;    0,000
333,043;  225,211;  228,077;    0,000
333,637;  222,051;  224,620;    0,000
334,230;  220,975;  224,334;    0,000
334,824;  221,999;  224,734;    0,000
335,417;  222,276;  225,320;    0,000
336,011;  221,701;  224,977;    0,000
336,604;  216,129;  218,520;    0,000
337,197;  212,466;  213,805;    0,000
337,791;  213,673;  214,663;    0,000
338,384;  212,863;  213,991;    0,000
338,977;  210,902;  212,834;    0,000
339,571;  207,893;  211,249;    0,000
340,164;  208,257;  210,091;    0,000
340,757;  215,477;  217,863;    0,000
341,350;  215,603;  217,548;    0,000
341,943;  212,516;  214,991;    0,000
342,537;  209,061;  211,906;    0,000
343,130;  206,412;  210,448;    0,000
343,723;  209,417;  213,891;    0,000
344,316;  205,716;  212,191;    0,000
344,909;  203,309;  209,620;    0,000
345,502;  205,758;  214,991;    0,000
346,095;  207,997;  217,477;    0,000
346,688;  212,772;  223,720;    0,000
347,281;  215,321;  223,891;    0,000
347,874;  215,281;  223,234;    0,000
348,466;  223,519;  232,305;    0,000
349,059;  224,785;  232,305;    0,000
349,652;  219,344;  227,905;    0,000
350,245;  221,382;  227,862;    0,000
350,838;  219,811;  224,748;    0,000
351,430;  220,476;  226,791;    0,000
352,023;  217,115;  222,262;    0,000
352,616;  210,520;  214,477;    0,000
353,208;  208,733;  215,991;    0,000
353,801;  215,145;  220,548;    0,000
354,393;  213,633;  221,248;    0,000
354,986;  215,495;  222,963;    0,000
355,578;  216,327;  222,991;    0,000
356,171;  219,560;  227,734;    0,000
356,763;  224,621;  231,677;    0,000
357,356;  223,683;  228,805;    0,000
357,948;  221,761;  225,205;    0,000
358,541;  223,850;  225,734;    0,000
359,133;  223,896;  227,063;    0,000
359,725;  222,241;  225,562;    0,000
360,318;  218,510;  222,305;    0,000
360,910;  216,573;  223,048;    0,000
361,502;  218,673;  223,791;    0,000
362,094;  217,394;  224,248;    0,000
362,686;  213,078;  218,677;    0,000
363,279;  209,382;  215,248;    0,000
363,871;  212,818;  219,305;    0,000
364,463;  216,280;  221,777;    0,000
365,055;  215,415;  218,034;    0,000
365,647;  214,130;  218,791;    0,000
366,239;  211,815;  216,263;    0,000
366,831;  212,786;  221,691;    0,000
367,423;  215,528;  224,605;    0,000
368,015;  213,881;  221,120;    0,000
368,607;  213,491;  221,420;    0,000
369,198;  215,658;  224,748;    0,000
369,790;  213,667;  222,805;    0,000
370,382;  215,016;  222,448;    0,000
370,974;  215,135;  219,391;    0,000
371,565;  215,461;  217,891;    0,000
372,157;  212,316;  216,862;    0,000
372,749;  213,157;  216,705;    0,000
373,341;  206,146;  210,891;    0,000
373,932;  214,306;  217,363;    0,000
374,524;  215,245;  220,948;    0,000
375,115;  214,592;  222,748;    0,000
375,707;  216,223;  225,720;    0,000
376,298;  222,786;  228,977;    0,000
376,890;  222,630;  228,691;    0,000
377,481;  228,590;  233,534;    0,000
378,073;  221,700;  226,877;    0,000
378,664;  223,721;  228,148;    0,000
379,255;  225,989;  226,948;    0,000
379,847;  225,242;  226,062;    0,000
380,438;  221,364;  223,162;    0,000
381,029;  220,152;  223,205;    0,000
381,620;  215,303;  220,105;    0,000
382,212;  215,455;  221,491;    0,000
382,803;  213,546;  219,491;    0,000
383,394;  212,074;  218,234;    0,000
383,985;  209,964;  215,306;    0,000
384,576;  211,005;  219,520;    0,000
385,167;  207,065;  216,706;    0,000
385,758;  208,518;  218,521;    0,000
386,349;  205,191;  214,407;    0,000
386,940;  205,746;  215,479;    0,000
387,531;  207,804;  220,393;    0,000
388,122;  207,400;  221,951;    0,000
388,713;  203,047;  214,109;    0,000
389,304;  203,704;  216,380;    0,000
389,895;  204,718;  215,895;    0,000
390,485;  213,185;  225,453;    0,000
391,076;  208,198;  220,339;    0,000
391,667;  209,358;  219,296;    0,000
392,258;  208,613;  217,654;    0,000
392,848;  210,567;  221,997;    0,000
393,439;  209,591;  216,911;    0,000
394,030;  208,633;  213,611;    0,000
394,620;  205,329;  210,539;    0,000
395,211;  211,079;  213,968;    0,000
395,801;  209,249;  212,382;    0,000
396,392;  208,349;  212,710;    0,000
396,982;  207,648;  212,795;    0,000
397,573;  213,323;  219,895;    0,000
398,163;  214,017;  223,795;    0,000
398,753;  209,297;  219,880;    0,000
399,344;  205,230;  216,523;    0,000
399,934;  200,495;  212,895;    0,000
400,524;  202,035;  213,852;    0,000
401,115;  201,782;  214,410;    0,000
401,705;  195,153;  207,352;    0,000
402,295;  196,174;  207,567;    0,000
402,885;  195,889;  205,610;    0,000
403,475;  196,196;  206,610;    0,000
404,065;  198,765;  207,595;    0,000
404,655;  197,146;  206,095;    0,000
405,245;  197,418;  203,409;    0,000
405,835;  205,066;  211,124;    0,000
406,425;  206,228;  211,652;    0,000
407,015;  207,529;  213,681;    0,000
407,605;  210,327;  216,495;    0,000
408,195;  213,263;  221,523;    0,000
408,785;  213,847;  221,809;    0,000
409,375;  214,544;  224,638;    0,000
409,965;  214,870;  223,695;    0,000
410,554;  217,432;  226,838;    0,000
411,144;  220,706;  229,466;    0,000
411,734;  221,359;  229,352;    0,000
412,324;  219,555;  226,666;    0,000
412,913;  220,097;  227,938;    0,000
413,503;  225,920;  232,009;    0,000
414,092;  224,576;  233,809;    0,000
414,682;  222,547;  230,552;    0,000
415,271;  220,535;  227,466;    0,000
415,861;  215,829;  224,352;    0,000
416,450;  217,571;  226,323;    0,000
417,040;  218,668;  225,923;    0,000
417,629;  216,404;  221,352;    0,000
418,219;  213,079;  218,009;    0,000
418,808;  212,239;  218,137;    0,000
419,397;  209,679;  218,195;    0,000
419,986;  215,496;  224,880;    0,000
420,576;  217,946;  226,266;    0,000
421,165;  220,725;  227,480;    0,000
421,754;  215,712;  223,623;    0,000
422,343;  219,285;  227,609;    0,000
422,932;  216,185;  224,694;    0,000
423,521;  219,291;  226,809;    0,000
424,111;  212,768;  220,352;    0,000
424,700;  210,989;  220,494;    0,000
425,289;  208,152;  218,980;    0,000
425,878;  211,506;  221,823;    0,000
426,466;  208,017;  217,809;    0,000
427,055;  209,500;  219,380;    0,000
427,644;  209,877;  219,766;    0,000
428,233;  216,876;  224,694;    0,000
428,822;  215,934;  222,209;    0,000
429,411;  216,372;  221,980;    0,000
429,999;  216,717;  225,352;    0,000
430,588;  215,460;  222,009;    0,000
431,177;  213,962;  222,495;    0,000
431,766;  214,198;  223,252;    0,000
432,354;  212,871;  223,766;    0,000
432,943;  210,258;  220,652;    0,000
433,531;  209,319;  222,280;    0,000
434,120;  208,476;  220,723;    0,000
434,708;  210,380;  224,952;    0,000
435,297;  214,680;  226,752;    0,000
435,885;  210,230;  223,309;    0,000
436,474;  206,166;  218,280;    0,000
437,062;  203,484;  218,380;    0,000
437,650;  204,471;  215,237;    0,000
438,239;  201,150;  210,866;    0,000
438,827;  198,657;  206,880;    0,000
439,415;  194,593;  202,723;    0,000
440,003;  199,045;  204,665;    0,000
440,592;  202,021;  205,523;    0,000
441,180;  204,999;  207,437;    0,000
441,768;  202,205;  206,123;    0,000
442,356;  205,459;  210,251;    0,000
442,944;  208,065;  214,151;    0,000
443,532;  211,522;  217,522;    0,000
444,120;  206,452;  211,722;    0,000
444,708;  206,315;  213,079;    0,000
445,296;  205,050;  211,108;    0,000
445,884;  207,350;  214,308;    0,000
446,472;  205,869;  213,351;    0,000
447,060;  204,061;  211,565;    0,000
447,647;  201,194;  210,394;    0,000
448,235;  206,304;  217,108;    0,000
448,823;  204,202;  215,479;    0,000
449,411;  206,158;  217,622;    0,000
449,998;  203,045;  214,865;    0,000
450,586;  202,208;  215,108;    0,000
451,173;  207,650;  219,051;    0,000
451,761;  208,726;  218,708;    0,000
452,349;  208,431;  219,294;    0,000
452,936;  213,433;  223,751;    0,000
453,524;  212,629;  222,765;    0,000
454,111;  215,880;  224,151;    0,000
454,698;  217,813;  224,951;    0,000
455,286;  219,482;  227,565;    0,000
455,873;  221,051;  229,751;    0,000
456,461;  222,298;  230,350;    0,000
457,048;  217,884;  227,193;    0,000
457,635;  220,174;  229,765;    0,000
458,222;  221,097;  232,650;    0,000
458,810;  225,982;  236,022;    0,000
459,397;  217,861;  227,307;    0,000
459,984;  219,141;  229,179;    0,000
460,571;  215,267;  223,807;    0,000
461,158;  212,389;  221,050;    0,000
461,745;  211,411;  219,465;    0,000
462,332;  209,556;  219,150;    0,000
462,919;  205,409;  216,507;    0,000
463,506;  214,251;  224,379;    0,000
464,093;  212,552;  221,208;    0,000
464,680;  213,585;  223,650;    0,000
465,267;  219,231;  227,936;    0,000
465,853;  216,057;  226,450;    0,000
466,440;  218,891;  228,150;    0,000
467,027;  220,594;  228,893;    0,000
467,614;  216,811;  224,979;    0,000
468,200;  221,088;  229,750;    0,000
468,787;  221,393;  227,607;    0,000
469,374;  222,560;  227,636;    0,000
469,960;  227,119;  230,007;    0,000
470,547;  226,753;  226,878;    0,000
471,133;  222,112;  223,678;    0,000
471,720;  221,214;  224,207;    0,000
472,306;  223,386;  224,064;    0,000
472,893;  222,369;  224,193;    0,000
473,479;  224,044;  228,793;    0,000
474,065;  222,896;  227,350;    0,000
474,652;  223,558;  229,721;    0,000
475,238;  227,128;  232,321;    0,000
475,824;  224,466;  227,664;    0,000
476,410;  226,129;  230,321;    0,000
476,997;  230,265;  234,007;    0,000
